# title: structure factor S(k) of the whole system
# columns: k, S(k)
# date: 2021-02-15 11:49:51
# command: atooms-pp
# version: 2.5.5+2.5.1-4-ga4bbb3-dirty (2020-11-06)
# parents: trj_2.79895.xyz
0.512913 0.0877586
0.725369 0.0885036
0.888392 0.103679
1.02583 0.0632084
1.14691 0.0794538
1.25638 0.0886914
1.45074 0.106799
1.53874 0.0749263
1.62197 0.100491
1.70114 0.0985834
1.77678 0.0915799
1.84933 0.0907368
1.91915 0.108934
2.05165 0.0756217
2.11479 0.113293
2.17611 0.0904437
2.23574 0.100674
2.29382 0.113367
2.35046 0.11229
2.40578 0.0997708
2.51275 0.111559
2.56457 0.116753
2.61535 0.112897
2.66517 0.120999
2.76212 0.129809
2.80934 0.110138
2.90147 0.12327
2.94646 0.141506
2.99077 0.12295
3.03443 0.116502
3.07748 0.13578
3.11993 0.125532
3.16181 0.143829
3.24395 0.143185
3.28425 0.156576
3.32406 0.164383
3.3634 0.176077
3.40228 0.160939
3.44073 0.17124
3.47875 0.162198
3.55357 0.158548
3.59039 0.168479
3.62684 0.181899
3.66293 0.178644
3.69867 0.180147
3.73406 0.188107
3.76913 0.177005
3.83829 0.197649
3.87241 0.192804
3.90623 0.214742
3.93976 0.207814
4.00598 0.228103
4.03868 0.221942
4.1033 0.300971
4.13524 0.228169
4.16693 0.248505
4.19837 0.245464
4.22959 0.271785
4.26058 0.271431
4.29134 0.271984
4.35221 0.254838
4.38233 0.304698
4.41225 0.286863
4.44196 0.281166
4.47147 0.291565
4.50079 0.299531
4.52993 0.333603
4.58763 0.335135
4.61622 0.392751
4.64463 0.322492
4.67286 0.384029
4.70093 0.393002
4.72883 0.39823
4.75656 0.320956
4.81155 0.340453
4.83881 0.439358
4.86592 0.426302
4.89288 0.392229
4.94635 0.535311
4.97288 0.531088
5.0255 0.481963
5.05161 0.541109
5.07758 0.574043
5.10342 0.522449
5.12913 0.608886
5.15471 0.497195
5.18017 0.569229
5.23071 0.643066
5.2558 0.543692
5.28076 0.527618
5.30561 0.61681
5.33035 0.70662
5.35497 0.701027
5.37948 0.737607
5.45234 0.820112
5.47641 0.903991
5.50038 1.02686
5.52424 0.907001
5.548 0.825056
5.57166 0.823848
5.61868 0.92837
5.64204 0.868836
5.66531 0.860175
5.68848 0.968597
5.73454 0.83796
5.75744 1.05165
5.80295 1.30978
5.82557 1.08848
5.84811 1.17157
5.87056 1.21531
5.89292 1.08718
5.9152 1.04883
5.9374 1.22526
5.98154 1.32773
6.00349 1.04744
6.02536 1.13087
6.04716 1.5435
6.06887 1.27801
6.09051 1.16133
6.11206 1.26646
6.15496 1.99907
6.17629 1.47298
6.19755 1.38294
6.21874 1.45873
6.23986 1.36675
6.2609 1.5419
6.28188 1.45782
6.32362 1.60153
6.34438 1.43315
6.36508 1.77797
6.38572 1.66343
6.42678 1.48602
6.44722 1.72434
6.48789 1.54394
6.50814 1.56604
6.52832 1.58724
6.54844 1.82426
6.56849 1.96943
6.58849 1.72971
6.60842 1.78099
6.64811 1.67188
6.66787 1.65677
6.68757 2.035
6.70721 1.82102
6.72679 1.56073
6.74632 1.67771
6.76579 1.5116
6.80456 1.73628
6.82386 1.90881
6.84311 1.94738
6.86231 1.79713
6.88145 2.1029
6.90054 1.64732
6.91958 1.53762
6.95749 1.77127
6.97637 1.51569
6.9952 1.82867
7.01398 1.36324
7.05139 1.64251
7.07002 1.52894
7.10713 1.94589
7.12562 1.7434
7.14405 1.75264
7.16244 1.58267
7.18078 1.3749
7.19908 1.68543
7.21733 1.5676
7.25369 1.46115
7.2718 1.52003
7.28986 1.28533
7.30789 1.61595
7.32586 1.32067
7.35453 1.47047
7.39734 1.50122
7.4151 1.40299
7.43282 1.58386
7.45049 1.3051
7.46813 1.19293
7.48572 1.33659
7.50327 1.33468
7.54697 1.44692
7.57307 1.2903
7.59042 1.19553
7.625 1.16042
7.64223 1.35502
7.69027 1.25246
7.71077 1.24323
7.72781 1.28546
7.74482 1.20218
7.76178 1.45307
7.77871 1.27085
7.8276 1.22193
7.84606 1.06327
7.86281 1.12137
7.87952 0.946944
7.8962 1.04533
7.91284 1.09428
7.96255 0.966565
7.97906 1.19447
7.99552 1.07854
8.01196 1.1153
8.03245 1.01669
8.07736 1.01473
8.09363 0.952062
8.10987 1.0379
8.12607 1.08935
8.15838 0.997878
8.17449 1.13615
8.20661 0.966963
8.22662 1.04148
8.25455 0.9953
8.27048 1.00612
8.28636 0.840956
8.30222 0.906884
8.33385 0.938159
8.34962 0.835622
8.36536 0.95167
8.38107 0.930539
8.41162 0.956039
8.42802 0.939045
8.45918 0.795435
8.48402 0.938385
8.5057 0.851504
8.52115 0.973436
8.54812 0.976949
8.58268 0.917785
8.59799 0.87035
8.62167 0.868127
8.65897 0.837691
8.67415 0.985435
8.70442 0.844931
8.71952 0.850709
8.7346 0.81533
8.7534 0.837841
8.77966 0.876467
8.79463 0.887377
8.82449 0.853694
8.83938 0.812164
8.85425 0.703985
8.8691 0.773872
8.89353 0.859299
8.91348 0.751122
8.95323 0.873162
8.97231 0.884574
8.98696 0.809093
9.00524 0.874667
9.03077 0.849179
9.07001 0.772082
9.08884 0.890067
9.1033 0.86434
9.13216 0.781381
9.14655 0.742074
9.17527 0.738839
9.18959 0.785573
9.2039 0.767771
9.22816 0.799831
9.24667 0.812895
9.26089 0.893113
9.28925 0.774254
9.3034 0.803093
9.32388 0.873694
9.34572 0.814541
9.35979 0.784103
9.37383 0.778205
9.40185 0.79442
9.4256 0.796421
9.44373 0.825559
9.45765 0.835141
9.4771 0.830663
9.51865 0.862392
9.54073 0.796068
9.55451 0.754009
9.58201 0.73398
9.59573 0.766084
9.6231 0.75152
9.63676 0.796886
9.6504 0.729734
9.67218 0.685376
9.69121 0.770054
9.70477 0.826576
9.73184 0.773701
9.75546 0.830686
9.77231 0.89704
9.7965 0.719965
9.81261 0.866557
9.85274 0.827441
9.86608 0.850641
9.88406 0.794443
9.906 0.762306
9.91927 0.834326
9.94575 0.802239
9.96623 0.77769
9.98535 0.782477
10.0117 0.818858
10.0248 0.745563
10.051 0.795091
10.0641 0.791541
10.0811 0.916294
10.1032 0.759945
10.1201 0.806762
10.1629 0.761731
10.181 0.767987
10.1985 0.815919
10.2197 0.879088
10.2326 0.792854
10.2583 0.787656
10.2768 0.812735
10.2967 0.868067
10.3158 0.770475
10.3349 0.806898
10.3603 0.797365
10.3787 0.884229
10.3984 0.787694
10.4236 0.857085
10.4362 0.799875
10.4614 0.793164
10.474 0.849176
10.4934 0.732416
10.5116 0.841572
10.5285 0.816053
10.574 0.813055
10.587 0.777083
10.6112 0.947711
10.6292 0.869485
10.6687 0.807567
10.689 0.767776
10.7099 0.836369
10.7234 0.867413
10.7675 0.826715
10.7834 0.825949
10.7956 0.770583
10.8296 0.928826
10.8684 0.849265
10.8872 0.890655
10.9047 0.853453
10.9252 0.961072
10.9606 0.805515
10.9804 0.989578
11.0008 0.95908
11.0163 0.832306
11.0485 0.963994
11.0604 0.890849
11.0818 0.996983
11.096 0.961132
11.1144 0.884638
11.1433 0.923096
11.1551 0.94992
11.1693 0.906711
11.2022 0.922141
11.2139 0.980378
11.2374 1.01526
11.2549 1.00989
11.2724 0.966548
11.2928 0.937091
11.3074 0.901162
11.3306 0.974348
11.3498 0.922802
11.3677 0.975058
11.3885 0.936571
11.4001 1.06296
11.4346 0.949132
11.449 1.01997
11.4691 0.897485
11.4863 0.955547
11.5149 1.06419
11.5263 0.903961
11.54 0.971598
11.5718 1.06641
11.5832 0.9396
11.6059 1.05279
11.6229 0.970673
11.6455 0.970366
11.6624 0.988396
11.6737 0.960347
11.7063 0.915394
11.7271 0.907955
11.7411 0.999362
11.7573 1.02787
11.7858 1.0398
11.8059 1.04122
11.8193 1.1051
11.8404 1.12601
11.8526 1.01758
11.8809 0.921115
11.8969 0.990572
11.908 1.05233
11.9383 1.05852
11.9631 1.19748
11.9807 1.05728
11.996 1.0672
12.0157 1.03258
12.0289 1.03351
12.0562 1.15069
12.0725 1.10566
12.0867 1.19351
12.1133 1.00656
12.1377 1.05967
12.1534 1.14226
12.1702 1.11138
12.1886 1.14837
12.2026 1.14052
12.2349 1.09232
12.2494 1.19069
12.2778 1.06035
12.2885 1.2044
12.3099 1.11274
12.3297 1.18686
12.3457 1.11203
12.3675 1.17616
12.402 1.16643
12.4216 1.12754
12.4459 1.12491
12.4586 1.15158
12.4897 1.00502
12.5034 1.20309
12.5218 1.1741
12.5365 1.19433
12.5638 1.06288
12.58 1.11144
12.5951 1.07275
12.6196 1.03599
12.6472 1.0403
12.6576 0.959739
12.6748 1.18187
12.6934 1.13779
12.7095 1.1069
12.7353 1.13023
12.7575 1.26747
12.7797 1.16024
12.792 1.21815
12.8228 1.17274
12.8351 1.21422
12.8536 1.07026
12.8669 1.13365
12.8944 1.12919
12.9087 1.1123
12.925 1.26993
12.9514 1.10647
12.9758 1.14525
12.989 1.14616
13.0143 1.10829
13.0304 0.971948
13.0566 1.13182
13.0722 1.06186
13.0883 1.1689
13.1069 1.11773
13.1169 1.00887
13.1435 1.09099
13.166 1.12949
13.1845 1.04807
13.1969 1.1864
13.2263 1.07582
13.2387 1.15558
13.2665 1.19797
13.2764 1.02386
13.3041 1.0927
13.3204 1.17225
13.3446 1.01553
13.3555 1.22235
13.3825 1.15462
13.3982 1.02291
13.4188 1.17813
13.434 1.17624
13.4619 1.06836
13.4761 1.12207
13.4975 1.13942
13.5121 1.14234
13.5355 1.05234
13.5554 1.06748
13.5801 1.14631
13.5898 1.09618
13.6183 1.02017
13.6313 1.0981
13.655 1.05437
13.667 1.05654
13.6939 1.0548
13.7083 1.10397
13.7313 1.08969
13.7438 1.14517
13.7696 1.03467
13.7834 1.12279
13.8097 1.17218
13.8201 1.03715
13.8458 1.06024
13.8653 0.997796
13.8932 1.1124
13.915 1.17748
13.9292 1.06339
13.9494 1.05876
13.9655 1.00565
13.9904 1.09536
14.0064 0.970543
14.0209 1.06792
14.0416 1.1888
14.0813 1.11641
14.0967 0.977591
14.1186 1.08185
14.147 1.00968
14.1619 1.11054
14.1865 1.06533
14.1957 0.994909
14.2231 1.05678
14.2341 1.12882
14.2595 1.00649
14.2697 0.950596
14.2959 1.02379
14.3185 1.02437
14.3396 0.956635
14.3616 0.980707
14.3767 0.993844
14.3936 1.0401
14.41 1.10192
14.4347 1.02891
14.4529 1.08687
14.4801 1.08196
14.4892 0.91392
14.5146 1.07487
14.5314 1.06745
14.5486 0.960233
14.5617 1.03898
14.5915 1.00335
14.6113 1.01459
14.6279 0.977692
14.6517 1.019
14.6679 1.03173
14.6939 1.05692
14.7055 1.01261
14.7283 0.918298
14.7461 1.04706
14.768 1.07937
14.7769 1.05754
14.8062 0.967043
14.8271 0.989932
14.8435 1.09102
14.8656 1.06742
14.882 0.986829
14.9067 1.04225
14.9186 0.864421
14.9451 0.956343
14.9574 1.01939
14.9833 1.02404
15.0065 1.00897
15.0179 0.978855
15.0328 0.965341
15.0525 0.98816
15.0822 0.932672
15.0957 0.971168
15.1183 0.980666
15.1288 0.903832
15.157 0.979156
15.1752 1.06345
15.1973 0.897615
15.2271 0.995077
15.2552 1.01767
15.2672 0.954515
15.2888 0.872435
15.3042 0.951753
15.3313 0.884235
15.3532 0.925814
15.3711 0.962342
15.3938 0.922805
15.4045 0.942365
15.4288 0.944435
15.4454 0.940066
15.4663 0.947603
15.4896 1.01718
15.507 0.952494
15.5286 0.917867
15.5405 0.910008
15.565 0.974492
15.5828 0.95351
15.6047 0.988544
15.6249 0.847577
15.6384 0.984965
15.6623 1.02146
15.6753 0.984094
15.7001 0.909133
15.7198 0.904546
15.734 0.907584
15.7661 0.972952
15.7795 0.961022
15.7957 0.897022
15.809 1.02604
15.8377 0.938274
15.8506 0.939925
15.8705 0.975771
15.9003 1.02363
15.9139 0.988063
15.9358 0.981498
15.9581 0.857885
15.9734 0.959451
15.9972 0.935915
16.0075 0.924488
16.0346 0.963026
16.0502 0.967786
16.0665 0.908431
16.0952 0.910048
16.1074 0.916515
16.1348 0.968862
16.1547 0.898758
16.1706 0.901144
16.1921 0.926966
16.2035 0.971447
16.2295 0.932537
16.2489 0.881132
16.2631 0.979093
16.2926 0.965072
16.3047 0.903456
16.3301 0.918393
16.349 0.994809
16.3651 0.944748
16.3892 1.00937
16.3972 1.04622
16.424 0.916355
16.4436 0.951315
16.456 0.953457
16.4812 0.900053
16.4956 0.934536
16.5203 0.928337
16.5465 0.986328
16.5612 0.843593
16.5822 0.917681
16.6044 0.907936
16.6159 0.949419
16.6369 0.902321
16.6519 0.905403
16.6776 0.950946
16.6953 0.980245
16.7111 1.06011
16.7346 0.942846
16.7519 0.939803
16.7743 0.899398
16.8009 0.933268
16.8115 0.894177
16.8318 1.03258
16.856 0.907143
16.8705 0.937091
16.895 0.841998
16.9051 0.907048
16.9273 0.983838
16.9459 0.854855
16.9649 0.95821
16.9886 0.967729
17.006 0.993363
17.0226 0.992376
17.0469 0.950104
17.0593 0.991096
17.0828 1.04559
17.1082 0.88556
17.1232 0.927994
17.1477 0.936861
17.173 0.941438
17.183 0.987052
17.2013 1.04887
17.2266 0.930879
17.2418 0.982923
17.2639 1.02365
17.2723 1.03874
17.3065 0.962706
17.3221 0.950096
17.3369 0.983535
17.3619 0.934849
17.3809 0.946498
17.3937 0.92536
17.4213 0.996016
17.4394 1.00405
17.4541 0.970243
17.4745 0.921518
17.494 1.03479
17.5121 0.983647
17.5402 1.02987
17.5567 0.980768
17.5713 0.981423
17.5919 0.953203
17.6076 0.978617
17.6292 0.857331
17.6542 0.995673
17.6691 0.955187
17.6899 0.961221
17.7156 1.00064
17.7297 1.06197
17.7482 1.00329
17.7738 0.925339
17.7882 1.02516
17.8078 0.994772
17.8332 0.959882
17.8461 0.958893
17.8704 0.939136
17.8929 1.0266
17.9035 0.977079
17.9241 1.0107
17.9494 0.961194
17.96 0.965927
17.9809 1.00017
18.0098 1.00967
18.0203 0.928986
18.0448 1.07468
18.067 0.972944
18.0786 1.06395
18.1001 0.98556
18.1259 1.08537
18.1386 1.01616
18.1592 1.03621
18.1802 1.01717
18.1965 1.00905
18.2192 1.0131
18.2427 1.01119
18.2535 0.973152
18.274 1.01746
18.2985 0.979188
18.3104 1.07536
18.3319 1.10526
18.357 1.02414
18.3745 0.960477
18.3935 0.999074
18.4149 1.03939
18.4328 0.986986
18.4481 1.05307
18.4752 0.992907
18.4965 0.943735
18.5076 1.02479
18.5289 0.989865
18.5523 1.06931
18.5643 1.03649
18.5902 1.08401
18.6068 1.09183
18.6259 1.04673
18.6495 1.08319
18.6689 1.04709
18.6781 1.04908
18.7045 1.09261
18.7269 1.05766
18.7477 1.05278
18.7606 1.07024
18.7838 1.04407
18.8089 1.026
18.8215 1.01117
18.8411 1.03788
18.8634 0.969053
18.8774 1.00267
18.8996 1.06893
18.9243 1.04608
18.9424 1.03637
18.9542 1.02277
18.9802 1.01197
18.9986 1.07944
19.0186 0.966301
19.0352 1.0637
19.0559 1.00832
19.0711 0.991783
19.0928 1.01317
19.1173 0.963452
19.1434 1.00685
19.1527 1.08798
19.1705 1.02992
19.1945 1.04642
19.2096 1.06103
19.2298 1.01283
19.2547 1.08806
19.2773 1.09702
19.2872 1.04332
19.309 1.07238
19.3308 1.00919
19.3451 0.980478
19.3682 1.14281
19.3923 0.987626
19.416 1.06532
19.4251 1.09842
19.4454 1.11221
19.4688 1.01623
19.4816 0.988989
19.5012 1.06289
19.5241 1.06259
19.5443 1.13352
19.5601 0.941504
19.5853 1.02535
19.6034 0.997086
19.6252 0.962707
19.6379 0.993639
19.6604 1.06274
19.6854 1.03606
19.6998 1.07962
19.7158 1.06135
19.7382 1.0028
19.7621 1.12502
19.7741 1.02409
19.7984 1.00516
19.8213 1.05548
19.8412 1.09824
19.8548 1.06753
19.8746 1.00167
19.8988 0.956581
19.9163 1.0374
19.9265 1.06674
19.9523 1.04127
19.9717 1.01929
19.9839 1.04128
20.0082 1.00677
20.0319 0.98695
20.0552 1.06666
20.0666 1.09943
20.0856 1.08374
